Temperature (C), Heat Flow Endo Up (mW)
-9.961, 0.0082
-9.971, 0.0082
-9.981, 0.0082
-9.981, 0.0044
-9.990, 0.0025
-10.000, 0.0019
-10.000, 0.0038
-10.010, 0.0000
-10.011, 0.0082
-10.021, 0.0057
-10.020, 0.0032
-10.030, 0.0038
-10.041, 0.0082
-10.041, 0.0057
-10.041, 0.0113
-10.050, 0.0025
-10.050, 0.0038
-10.051, 0.0044
-10.050, 0.0032
-10.050, 0.0032
-10.051, 0.0095
-10.051, 0.0063
-10.051, 0.0076
-10.051, 0.0069
-10.041, 0.0082
-10.041, 0.0063
-10.041, 0.0158
-10.041, 0.0113
-10.031, 0.0189
-10.031, 0.0208
-10.031, 0.0265
-10.021, 0.0309
-10.021, 0.0403
-10.011, 0.0384
-10.011, 0.0441
-10.011, 0.0435
-10.011, 0.0485
-10.001, 0.0592
-10.001, 0.0554
-10.001, 0.0630
-9.991, 0.0617
-9.991, 0.0706
-9.991, 0.0775
-9.991, 0.0806
-9.991, 0.0857
-9.991, 0.0800
-9.991, 0.0876
-9.991, 0.0964
-9.991, 0.0888
-9.991, 0.0920
-9.991, 0.0964
-9.991, 0.0977
-9.991, 0.0977
-9.991, 0.0958
-9.991, 0.1002
-9.991, 0.0989
-9.991, 0.0977
-9.991, 0.0951
-9.991, 0.0951
-9.991, 0.0983
-10.001, 0.0901
-9.392, 0.0920
-8.865, 0.0542
-8.411, 0.0044
-8.024, -0.0070
-7.693, 0.0132
-7.413, 0.0823
-7.176, 0.1867
-6.976, 0.3337
-6.807, 0.4813
-6.664, 0.6646
-6.542, 0.8497
-6.437, 1.0346
-6.344, 1.2094
-6.261, 1.3678
-6.184, 1.5255
-6.112, 1.6530
-6.042, 1.7629
-5.974, 1.8514
-5.907, 1.9092
-5.258, 1.9500
-4.928, 1.9902
-4.608, 2.0078
-4.278, 2.0242
-3.948, 2.0230
-3.618, 2.0318
-3.288, 2.0357
-2.958, 2.0407
-2.628, 2.0389
-2.298, 2.0446
-1.958, 2.0491
-1.628, 2.0541
-1.299, 2.0586
-0.959, 2.0649
-0.629, 2.0737
-0.299, 2.0719
0.041, 2.0888
0.371, 2.1001
0.701, 2.1046
1.041, 2.1152
1.371, 2.1259
1.701, 2.1278
2.031, 2.1416
2.351, 2.1510
2.701, 2.1616
3.041, 2.1667
3.371, 2.1779
3.701, 2.1929
4.041, 2.1961
4.370, 2.2080
4.700, 2.2155
5.040, 2.2230
5.380, 2.2324
5.700, 2.2387
6.040, 2.2493
6.370, 2.2561
6.690, 2.2606
7.040, 2.2767
7.370, 2.2842
7.710, 2.2923
8.040, 2.2998
8.370, 2.3086
8.700, 2.3229
9.040, 2.3310
9.369, 2.3415
9.709, 2.3441
10.039, 2.3571
10.369, 2.3677
10.709, 2.3795
11.039, 2.3870
11.369, 2.3963
11.709, 2.4068
12.039, 2.4180
12.369, 2.4347
12.709, 2.4379
13.039, 2.4534
13.379, 2.4651
13.709, 2.4707
14.038, 2.4868
14.368, 2.5004
14.708, 2.5128
15.038, 2.5252
15.368, 2.5419
15.708, 2.5548
16.038, 2.5691
16.368, 2.5814
16.708, 2.5919
17.038, 2.6055
17.367, 2.6228
17.707, 2.6388
18.037, 2.6628
18.367, 2.6727
18.707, 2.6912
19.047, 2.7139
19.377, 2.7281
19.707, 2.7447
20.036, 2.7669
20.366, 2.7884
20.706, 2.8111
21.036, 2.8327
21.376, 2.8529
21.706, 2.8744
22.035, 2.8996
22.365, 2.9217
22.705, 2.9444
23.035, 2.9640
23.375, 2.9946
23.705, 3.0161
24.034, 3.0455
24.374, 3.0669
24.704, 3.0957
25.034, 3.1178
25.374, 3.1465
25.704, 3.1691
26.033, 3.1887
26.373, 3.2107
26.703, 3.2406
27.043, 3.2632
27.373, 3.2852
27.703, 3.3066
28.022, 3.3304
28.372, 3.3468
28.702, 3.3730
29.032, 3.3932
29.372, 3.4028
29.702, 3.4168
30.032, 3.4327
30.362, 3.4466
30.682, 3.4545
31.041, 3.4672
31.371, 3.4684
31.701, 3.4689
32.031, 3.4688
32.371, 3.4718
32.701, 3.4681
33.031, 3.4674
33.371, 3.4728
33.701, 3.4703
34.041, 3.4605
34.371, 3.4616
34.701, 3.4610
35.031, 3.4634
35.372, 3.4566
35.681, 3.4572
36.031, 3.4596
36.371, 3.4583
36.701, 3.4576
37.042, 3.4558
37.352, 3.4546
37.701, 3.4667
38.031, 3.4678
38.371, 3.4720
38.701, 3.4757
39.031, 3.4775
39.371, 3.4805
39.701, 3.4877
40.031, 3.4889
40.371, 3.4931
40.701, 3.5010
41.041, 3.5040
41.371, 3.5192
41.701, 3.5216
42.031, 3.5277
42.371, 3.5337
42.701, 3.5428
43.041, 3.5488
43.371, 3.5561
43.701, 3.5640
44.031, 3.5658
44.371, 3.5730
44.701, 3.5767
45.031, 3.5821
45.371, 3.5912
45.700, 3.6003
46.030, 3.6033
46.370, 3.6094
46.700, 3.6154
47.020, 3.6251
47.370, 3.6317
47.700, 3.6366
48.040, 3.6426
48.421, 3.6435
48.744, 3.7101
49.014, 3.7519
49.239, 3.6938
49.422, 3.5595
49.571, 3.3422
49.689, 3.0899
49.780, 2.8181
49.850, 2.5476
49.902, 2.2897
49.939, 2.0543
49.965, 1.8382
49.982, 1.6554
49.992, 1.4919
49.998, 1.3503
50.000, 1.2323
50.002, 1.1342
50.002, 1.0513
50.002, 0.9786
50.003, 0.9151
50.003, 0.8679
50.004, 0.8340
50.004, 0.7958
50.004, 0.7668
50.004, 0.7401
50.004, 0.7196
50.004, 0.7050
49.995, 0.6905
50.005, 0.6784
49.995, 0.6639
